# Lorentzian folded, width=30 cm^-1
# [cm^-1] arbitrary
200.000      2.18012e-02
203.000      2.13743e-02
206.000      2.09700e-02
209.000      2.05872e-02
212.000      2.02249e-02
215.000      1.98821e-02
218.000      1.95577e-02
221.000      1.92510e-02
224.000      1.89612e-02
227.000      1.86876e-02
230.000      1.84294e-02
233.000      1.81861e-02
236.000      1.79570e-02
239.000      1.77416e-02
242.000      1.75394e-02
245.000      1.73500e-02
248.000      1.71729e-02
251.000      1.70077e-02
254.000      1.68540e-02
257.000      1.67116e-02
260.000      1.65802e-02
263.000      1.64594e-02
266.000      1.63489e-02
269.000      1.62487e-02
272.000      1.61584e-02
275.000      1.60779e-02
278.000      1.60070e-02
281.000      1.59456e-02
284.000      1.58936e-02
287.000      1.58508e-02
290.000      1.58173e-02
293.000      1.57929e-02
296.000      1.57776e-02
299.000      1.57714e-02
302.000      1.57743e-02
305.000      1.57864e-02
308.000      1.58076e-02
311.000      1.58381e-02
314.000      1.58779e-02
317.000      1.59271e-02
320.000      1.59859e-02
323.000      1.60543e-02
326.000      1.61327e-02
329.000      1.62212e-02
332.000      1.63201e-02
335.000      1.64295e-02
338.000      1.65498e-02
341.000      1.66813e-02
344.000      1.68243e-02
347.000      1.69793e-02
350.000      1.71466e-02
353.000      1.73268e-02
356.000      1.75203e-02
359.000      1.77277e-02
362.000      1.79497e-02
365.000      1.81868e-02
368.000      1.84398e-02
371.000      1.87096e-02
374.000      1.89969e-02
377.000      1.93028e-02
380.000      1.96282e-02
383.000      1.99744e-02
386.000      2.03425e-02
389.000      2.07339e-02
392.000      2.11501e-02
395.000      2.15928e-02
398.000      2.20637e-02
401.000      2.25649e-02
404.000      2.30985e-02
407.000      2.36670e-02
410.000      2.42731e-02
413.000      2.49196e-02
416.000      2.56100e-02
419.000      2.63479e-02
422.000      2.71374e-02
425.000      2.79831e-02
428.000      2.88902e-02
431.000      2.98645e-02
434.000      3.09126e-02
437.000      3.20417e-02
440.000      3.32604e-02
443.000      3.45782e-02
446.000      3.60060e-02
449.000      3.75565e-02
452.000      3.92439e-02
455.000      4.10851e-02
458.000      4.30994e-02
461.000      4.53093e-02
464.000      4.77414e-02
467.000      5.04268e-02
470.000      5.34025e-02
473.000      5.67124e-02
476.000      6.04091e-02
479.000      6.45561e-02
482.000      6.92305e-02
485.000      7.45263e-02
488.000      8.05594e-02
491.000      8.74738e-02
494.000      9.54492e-02
497.000      1.04713e-01
500.000      1.15554e-01
503.000      1.28344e-01
506.000      1.43565e-01
509.000      1.61847e-01
512.000      1.84020e-01
515.000      2.11183e-01
518.000      2.44794e-01
521.000      2.86770e-01
524.000      3.39583e-01
527.000      4.06251e-01
530.000      4.90025e-01
533.000      5.93277e-01
536.000      7.14787e-01
539.000      8.44816e-01
542.000      9.60062e-01
545.000      1.02664e+00
548.000      1.01892e+00
551.000      9.40767e-01
554.000      8.22025e-01
557.000      6.95241e-01
560.000      5.80379e-01
563.000      4.84699e-01
566.000      4.08253e-01
569.000      3.48326e-01
572.000      3.01693e-01
575.000      2.65483e-01
578.000      2.37398e-01
581.000      2.15682e-01
584.000      1.99020e-01
587.000      1.86445e-01
590.000      1.77252e-01
593.000      1.70936e-01
596.000      1.67150e-01
599.000      1.65672e-01
602.000      1.66387e-01
605.000      1.69276e-01
608.000      1.74415e-01
611.000      1.81978e-01
614.000      1.92254e-01
617.000      2.05663e-01
620.000      2.22800e-01
623.000      2.44478e-01
626.000      2.71799e-01
629.000      3.06241e-01
632.000      3.49768e-01
635.000      4.04917e-01
638.000      4.74793e-01
641.000      5.62758e-01
644.000      6.71301e-01
647.000      7.99302e-01
650.000      9.37094e-01
653.000      1.06148e+00
656.000      1.13895e+00
659.000      1.14480e+00
662.000      1.08419e+00
665.000      9.88231e-01
668.000      8.90693e-01
671.000      8.13111e-01
674.000      7.64920e-01
677.000      7.48999e-01
680.000      7.65838e-01
683.000      8.14864e-01
686.000      8.92948e-01
689.000      9.90083e-01
692.000      1.08391e+00
695.000      1.14021e+00
698.000      1.12880e+00
701.000      1.04646e+00
704.000      9.19127e-01
707.000      7.80057e-01
710.000      6.51598e-01
713.000      5.42737e-01
716.000      4.54250e-01
719.000      3.83519e-01
722.000      3.27161e-01
725.000      2.82069e-01
728.000      2.45714e-01
731.000      2.16127e-01
734.000      1.91814e-01
737.000      1.71640e-01
740.000      1.54746e-01
743.000      1.40478e-01
746.000      1.28330e-01
749.000      1.17913e-01
752.000      1.08921e-01
755.000      1.01113e-01
758.000      9.42956e-02
761.000      8.83157e-02
764.000      8.30476e-02
767.000      7.83896e-02
770.000      7.42576e-02
773.000      7.05825e-02
776.000      6.73066e-02
779.000      6.43817e-02
782.000      6.17672e-02
785.000      5.94291e-02
788.000      5.73382e-02
791.000      5.54702e-02
794.000      5.38039e-02
797.000      5.23217e-02
800.000      5.10084e-02
803.000      4.98510e-02
806.000      4.88386e-02
809.000      4.79620e-02
812.000      4.72135e-02
815.000      4.65869e-02
818.000      4.60770e-02
821.000      4.56798e-02
824.000      4.53926e-02
827.000      4.52133e-02
830.000      4.51412e-02
833.000      4.51763e-02
836.000      4.53196e-02
839.000      4.55732e-02
842.000      4.59401e-02
845.000      4.64246e-02
848.000      4.70320e-02
851.000      4.77690e-02
854.000      4.86439e-02
857.000      4.96664e-02
860.000      5.08483e-02
863.000      5.22035e-02
866.000      5.37485e-02
869.000      5.55028e-02
872.000      5.74894e-02
875.000      5.97355e-02
878.000      6.22737e-02
881.000      6.51422e-02
884.000      6.83874e-02
887.000      7.20644e-02
890.000      7.62402e-02
893.000      8.09961e-02
896.000      8.64312e-02
899.000      9.26680e-02
902.000      9.98583e-02
905.000      1.08192e-01
908.000      1.17908e-01
911.000      1.29312e-01
914.000      1.42794e-01
917.000      1.58862e-01
920.000      1.78178e-01
923.000      2.01615e-01
926.000      2.30325e-01
929.000      2.65835e-01
932.000      3.10150e-01
935.000      3.65837e-01
938.000      4.36001e-01
941.000      5.23902e-01
944.000      6.31694e-01
947.000      7.57442e-01
950.000      8.89978e-01
953.000      1.00428e+00
956.000      1.06624e+00
959.000      1.05321e+00
962.000      9.73341e-01
965.000      8.58360e-01
968.000      7.39945e-01
971.000      6.36549e-01
974.000      5.54606e-01
977.000      4.94149e-01
980.000      4.53007e-01
983.000      4.28895e-01
986.000      4.20239e-01
989.000      4.26446e-01
992.000      4.47954e-01
995.000      4.86197e-01
998.000      5.43387e-01
1001.000      6.21805e-01
1004.000      7.21959e-01
1007.000      8.38737e-01
1010.000      9.55797e-01
1013.000      1.04306e+00
1016.000      1.06729e+00
1019.000      1.01561e+00
1022.000      9.06788e-01
1025.000      7.74834e-01
1028.000      6.46823e-01
1031.000      5.35821e-01
1034.000      4.44779e-01
1037.000      3.71914e-01
1040.000      3.14022e-01
1043.000      2.67934e-01
1046.000      2.30995e-01
1049.000      2.01121e-01
1052.000      1.76718e-01
1055.000      1.56583e-01
1058.000      1.39805e-01
1061.000      1.25695e-01
1064.000      1.13725e-01
1067.000      1.03486e-01
1070.000      9.46632e-02
1073.000      8.70067e-02
1076.000      8.03197e-02
1079.000      7.44446e-02
1082.000      6.92545e-02
1085.000      6.46460e-02
1088.000      6.05349e-02
1091.000      5.68512e-02
1094.000      5.35373e-02
1097.000      5.05447e-02
1100.000      4.78328e-02
1103.000      4.53673e-02
1106.000      4.31188e-02
1109.000      4.10625e-02
1112.000      3.91770e-02
1115.000      3.74436e-02
1118.000      3.58465e-02
1121.000      3.43717e-02
1124.000      3.30071e-02
1127.000      3.17419e-02
1130.000      3.05668e-02
1133.000      2.94736e-02
1136.000      2.84550e-02
1139.000      2.75044e-02
1142.000      2.66162e-02
1145.000      2.57850e-02
1148.000      2.50064e-02
1151.000      2.42762e-02
1154.000      2.35906e-02
1157.000      2.29463e-02
1160.000      2.23404e-02
1163.000      2.17700e-02
1166.000      2.12327e-02
1169.000      2.07262e-02
1172.000      2.02486e-02
1175.000      1.97978e-02
1178.000      1.93723e-02
1181.000      1.89704e-02
1184.000      1.85908e-02
1187.000      1.82322e-02
1190.000      1.78934e-02
1193.000      1.75732e-02
1196.000      1.72707e-02
1199.000      1.69850e-02
1202.000      1.67152e-02
1205.000      1.64606e-02
1208.000      1.62203e-02
1211.000      1.59939e-02
1214.000      1.57806e-02
1217.000      1.55800e-02
1220.000      1.53914e-02
1223.000      1.52145e-02
1226.000      1.50488e-02
1229.000      1.48940e-02
1232.000      1.47496e-02
1235.000      1.46154e-02
1238.000      1.44911e-02
1241.000      1.43763e-02
1244.000      1.42709e-02
1247.000      1.41747e-02
1250.000      1.40874e-02
1253.000      1.40089e-02
1256.000      1.39391e-02
1259.000      1.38778e-02
1262.000      1.38251e-02
1265.000      1.37807e-02
1268.000      1.37446e-02
1271.000      1.37168e-02
1274.000      1.36974e-02
1277.000      1.36863e-02
1280.000      1.36835e-02
1283.000      1.36892e-02
1286.000      1.37033e-02
1289.000      1.37261e-02
1292.000      1.37576e-02
1295.000      1.37980e-02
1298.000      1.38474e-02
1301.000      1.39061e-02
1304.000      1.39743e-02
1307.000      1.40523e-02
1310.000      1.41404e-02
1313.000      1.42389e-02
1316.000      1.43481e-02
1319.000      1.44685e-02
1322.000      1.46006e-02
1325.000      1.47448e-02
1328.000      1.49016e-02
1331.000      1.50718e-02
1334.000      1.52559e-02
1337.000      1.54547e-02
1340.000      1.56689e-02
1343.000      1.58995e-02
1346.000      1.61474e-02
1349.000      1.64137e-02
1352.000      1.66995e-02
1355.000      1.70061e-02
1358.000      1.73350e-02
1361.000      1.76876e-02
1364.000      1.80658e-02
1367.000      1.84713e-02
1370.000      1.89064e-02
1373.000      1.93734e-02
1376.000      1.98748e-02
1379.000      2.04135e-02
1382.000      2.09929e-02
1385.000      2.16164e-02
1388.000      2.22882e-02
1391.000      2.30128e-02
1394.000      2.37954e-02
1397.000      2.46416e-02
1400.000      2.55581e-02
1403.000      2.65523e-02
1406.000      2.76328e-02
1409.000      2.88091e-02
1412.000      3.00925e-02
1415.000      3.14958e-02
1418.000      3.30337e-02
1421.000      3.47235e-02
1424.000      3.65851e-02
1427.000      3.86422e-02
1430.000      4.09222e-02
1433.000      4.34579e-02
1436.000      4.62880e-02
1439.000      4.94590e-02
1442.000      5.30266e-02
1445.000      5.70585e-02
1448.000      6.16370e-02
1451.000      6.68631e-02
1454.000      7.28620e-02
1457.000      7.97895e-02
1460.000      8.78413e-02
1463.000      9.72659e-02
1466.000      1.08381e-01
1469.000      1.21596e-01
1472.000      1.37446e-01
1475.000      1.56630e-01
1478.000      1.80074e-01
1481.000      2.09007e-01
1484.000      2.45053e-01
1487.000      2.90340e-01
1490.000      3.47566e-01
1493.000      4.19905e-01
1496.000      5.10454e-01
1499.000      6.20593e-01
1502.000      7.46392e-01
1505.000      8.73103e-01
1508.000      9.71995e-01
1511.000      1.00944e+00
1514.000      9.69980e-01
1517.000      8.69957e-01
1520.000      7.43151e-01
1523.000      6.17915e-01
1526.000      5.08591e-01
1529.000      4.18870e-01
1532.000      3.47282e-01
1535.000      2.90710e-01
1538.000      2.45990e-01
1541.000      2.10442e-01
1544.000      1.81957e-01
1547.000      1.58922e-01
1550.000      1.40121e-01
1553.000      1.24638e-01
1556.000      1.11777e-01
1559.000      1.01010e-01
1562.000      9.19315e-02
1565.000      8.42265e-02
1568.000      7.76495e-02
1571.000      7.20068e-02
1574.000      6.71446e-02
1577.000      6.29398e-02
1580.000      5.92929e-02
1583.000      5.61233e-02
1586.000      5.33651e-02
1589.000      5.09642e-02
1592.000      4.88759e-02
1595.000      4.70632e-02
1598.000      4.54956e-02
1601.000      4.41474e-02
1604.000      4.29974e-02
1607.000      4.20282e-02
1610.000      4.12252e-02
1613.000      4.05764e-02
1616.000      4.00725e-02
1619.000      3.97058e-02
1622.000      3.94706e-02
1625.000      3.93629e-02
1628.000      3.93802e-02
1631.000      3.95216e-02
1634.000      3.97876e-02
1637.000      4.01801e-02
1640.000      4.07026e-02
1643.000      4.13601e-02
1646.000      4.21596e-02
1649.000      4.31096e-02
1652.000      4.42210e-02
1655.000      4.55071e-02
1658.000      4.69838e-02
1661.000      4.86703e-02
1664.000      5.05899e-02
1667.000      5.27702e-02
1670.000      5.52443e-02
1673.000      5.80521e-02
1676.000      6.12418e-02
1679.000      6.48716e-02
1682.000      6.90123e-02
1685.000      7.37506e-02
1688.000      7.91936e-02
1691.000      8.54735e-02
1694.000      9.27562e-02
1697.000      1.01250e-01
1700.000      1.11221e-01
1703.000      1.23008e-01
1706.000      1.37052e-01
1709.000      1.53925e-01
1712.000      1.74382e-01
1715.000      1.99420e-01
1718.000      2.30361e-01
1721.000      2.68953e-01
1724.000      3.17468e-01
1727.000      3.78752e-01
1730.000      4.56045e-01
1733.000      5.52228e-01
1736.000      6.67764e-01
1739.000      7.96516e-01
1742.000      9.20168e-01
1745.000      1.00717e+00
1748.000      1.02617e+00
1751.000      9.69637e-01
1754.000      8.60688e-01
1757.000      7.33525e-01
1760.000      6.13083e-01
1763.000      5.10454e-01
1766.000      4.27567e-01
1769.000      3.62314e-01
1772.000      3.11507e-01
1775.000      2.72123e-01
1778.000      2.41679e-01
1781.000      2.18264e-01
1784.000      2.00453e-01
1787.000      1.87203e-01
1790.000      1.77775e-01
1793.000      1.71660e-01
1796.000      1.68541e-01
1799.000      1.68257e-01
1802.000      1.70795e-01
1805.000      1.76286e-01
1808.000      1.85018e-01
1811.000      1.97459e-01
1814.000      2.14302e-01
1817.000      2.36526e-01
1820.000      2.65476e-01
1823.000      3.02966e-01
1826.000      3.51366e-01
1829.000      4.13611e-01
1832.000      4.92918e-01
1835.000      5.91758e-01
1838.000      7.09293e-01
1841.000      8.36604e-01
1844.000      9.51451e-01
1847.000      1.02026e+00
1850.000      1.01586e+00
1853.000      9.39604e-01
1856.000      8.20094e-01
1859.000      6.90405e-01
1862.000      5.71570e-01
1865.000      4.71600e-01
1868.000      3.90885e-01
1871.000      3.26785e-01
1874.000      2.76042e-01
1877.000      2.35713e-01
1880.000      2.03417e-01
1883.000      1.77315e-01
1886.000      1.56012e-01
1889.000      1.38457e-01
1892.000      1.23855e-01
1895.000      1.11603e-01
1898.000      1.01238e-01
1901.000      9.24031e-02
1904.000      8.48210e-02
1907.000      7.82729e-02
1910.000      7.25856e-02
1913.000      6.76206e-02
1916.000      6.32661e-02
1919.000      5.94317e-02
1922.000      5.60431e-02
1925.000      5.30394e-02
1928.000      5.03701e-02
1931.000      4.79933e-02
1934.000      4.58737e-02
1937.000      4.39819e-02
1940.000      4.22930e-02
1943.000      4.07859e-02
1946.000      3.94429e-02
1949.000      3.82489e-02
1952.000      3.71911e-02
1955.000      3.62586e-02
1958.000      3.54424e-02
1961.000      3.47348e-02
1964.000      3.41295e-02
1967.000      3.36213e-02
1970.000      3.32063e-02
1973.000      3.28812e-02
1976.000      3.26439e-02
1979.000      3.24930e-02
1982.000      3.24282e-02
1985.000      3.24498e-02
1988.000      3.25590e-02
1991.000      3.27580e-02
1994.000      3.30498e-02
1997.000      3.34385e-02
2000.000      3.39293e-02
2003.000      3.45284e-02
2006.000      3.52437e-02
2009.000      3.60844e-02
2012.000      3.70617e-02
2015.000      3.81886e-02
2018.000      3.94809e-02
2021.000      4.09570e-02
2024.000      4.26388e-02
2027.000      4.45524e-02
2030.000      4.67289e-02
2033.000      4.92053e-02
2036.000      5.20264e-02
2039.000      5.52459e-02
2042.000      5.89291e-02
2045.000      6.31558e-02
2048.000      6.80240e-02
2051.000      7.36549e-02
2054.000      8.01997e-02
2057.000      8.78482e-02
2060.000      9.68414e-02
2063.000      1.07487e-01
2066.000      1.20182e-01
2069.000      1.35443e-01
2072.000      1.53947e-01
2075.000      1.76589e-01
2078.000      2.04555e-01
2081.000      2.39419e-01
2084.000      2.83240e-01
2087.000      3.38649e-01
2090.000      4.08778e-01
2093.000      4.96791e-01
2096.000      6.04416e-01
2099.000      7.28625e-01
2102.000      8.56252e-01
2105.000      9.60099e-01
2108.000      1.00607e+00
2111.000      9.75309e-01
2114.000      8.80619e-01
2117.000      7.55033e-01
2120.000      6.28345e-01
2123.000      5.16525e-01
2126.000      4.24230e-01
2129.000      3.50373e-01
2132.000      2.91923e-01
2135.000      2.45676e-01
2138.000      2.08887e-01
2141.000      1.79378e-01
2144.000      1.55483e-01
2147.000      1.35944e-01
2150.000      1.19810e-01
2153.000      1.06364e-01
2156.000      9.50597e-02
2159.000      8.54769e-02
2162.000      7.72908e-02
2165.000      7.02479e-02
2168.000      6.41480e-02
2171.000      5.88323e-02
2174.000      5.41732e-02
2177.000      5.00678e-02
2180.000      4.64323e-02
2183.000      4.31978e-02
2186.000      4.03077e-02
2189.000      3.77147e-02
2192.000      3.53794e-02
2195.000      3.32687e-02
2198.000      3.13545e-02
2201.000      2.96130e-02
2204.000      2.80239e-02
2207.000      2.65698e-02
2210.000      2.52356e-02
2213.000      2.40083e-02
2216.000      2.28767e-02
2219.000      2.18309e-02
2222.000      2.08624e-02
2225.000      1.99635e-02
2228.000      1.91276e-02
2231.000      1.83488e-02
2234.000      1.76220e-02
2237.000      1.69425e-02
2240.000      1.63061e-02
2243.000      1.57093e-02
2246.000      1.51487e-02
2249.000      1.46214e-02
2252.000      1.41247e-02
2255.000      1.36562e-02
2258.000      1.32137e-02
2261.000      1.27953e-02
2264.000      1.23993e-02
2267.000      1.20239e-02
2270.000      1.16677e-02
2273.000      1.13295e-02
2276.000      1.10079e-02
2279.000      1.07018e-02
2282.000      1.04102e-02
2285.000      1.01323e-02
2288.000      9.86697e-03
2291.000      9.61360e-03
2294.000      9.37140e-03
2297.000      9.13969e-03
2300.000      8.91785e-03
2303.000      8.70529e-03
2306.000      8.50149e-03
2309.000      8.30594e-03
2312.000      8.11818e-03
2315.000      7.93778e-03
2318.000      7.76434e-03
2321.000      7.59749e-03
2324.000      7.43687e-03
2327.000      7.28217e-03
2330.000      7.13307e-03
2333.000      6.98931e-03
2336.000      6.85060e-03
2339.000      6.71671e-03
2342.000      6.58739e-03
2345.000      6.46243e-03
2348.000      6.34163e-03
2351.000      6.22478e-03
2354.000      6.11172e-03
2357.000      6.00225e-03
2360.000      5.89624e-03
2363.000      5.79351e-03
2366.000      5.69393e-03
2369.000      5.59736e-03
2372.000      5.50368e-03
2375.000      5.41275e-03
2378.000      5.32447e-03
2381.000      5.23873e-03
2384.000      5.15543e-03
2387.000      5.07446e-03
2390.000      4.99573e-03
2393.000      4.91916e-03
2396.000      4.84467e-03
2399.000      4.77216e-03
2402.000      4.70157e-03
2405.000      4.63283e-03
2408.000      4.56586e-03
2411.000      4.50060e-03
2414.000      4.43699e-03
2417.000      4.37497e-03
2420.000      4.31448e-03
2423.000      4.25547e-03
2426.000      4.19789e-03
2429.000      4.14168e-03
2432.000      4.08681e-03
2435.000      4.03322e-03
2438.000      3.98088e-03
2441.000      3.92974e-03
2444.000      3.87975e-03
2447.000      3.83090e-03
2450.000      3.78313e-03
2453.000      3.73641e-03
2456.000      3.69072e-03
2459.000      3.64601e-03
2462.000      3.60226e-03
2465.000      3.55944e-03
2468.000      3.51752e-03
2471.000      3.47647e-03
2474.000      3.43627e-03
2477.000      3.39689e-03
2480.000      3.35830e-03
2483.000      3.32049e-03
2486.000      3.28344e-03
2489.000      3.24711e-03
2492.000      3.21149e-03
2495.000      3.17657e-03
2498.000      3.14231e-03
2501.000      3.10871e-03
2504.000      3.07574e-03
2507.000      3.04338e-03
2510.000      3.01163e-03
2513.000      2.98046e-03
2516.000      2.94986e-03
2519.000      2.91982e-03
2522.000      2.89031e-03
2525.000      2.86133e-03
2528.000      2.83286e-03
2531.000      2.80489e-03
2534.000      2.77741e-03
2537.000      2.75040e-03
2540.000      2.72385e-03
2543.000      2.69776e-03
2546.000      2.67210e-03
2549.000      2.64687e-03
2552.000      2.62207e-03
2555.000      2.59767e-03
2558.000      2.57367e-03
2561.000      2.55005e-03
2564.000      2.52682e-03
2567.000      2.50397e-03
2570.000      2.48147e-03
2573.000      2.45933e-03
2576.000      2.43753e-03
2579.000      2.41608e-03
2582.000      2.39495e-03
2585.000      2.37415e-03
2588.000      2.35367e-03
2591.000      2.33349e-03
2594.000      2.31362e-03
2597.000      2.29405e-03
2600.000      2.27476e-03
2603.000      2.25576e-03
2606.000      2.23704e-03
2609.000      2.21858e-03
2612.000      2.20040e-03
2615.000      2.18247e-03
2618.000      2.16480e-03
2621.000      2.14738e-03
2624.000      2.13020e-03
2627.000      2.11327e-03
2630.000      2.09657e-03
2633.000      2.08010e-03
2636.000      2.06385e-03
2639.000      2.04783e-03
2642.000      2.03202e-03
2645.000      2.01643e-03
2648.000      2.00104e-03
2651.000      1.98586e-03
2654.000      1.97088e-03
2657.000      1.95609e-03
2660.000      1.94150e-03
2663.000      1.92710e-03
2666.000      1.91288e-03
2669.000      1.89885e-03
2672.000      1.88499e-03
2675.000      1.87131e-03
2678.000      1.85781e-03
2681.000      1.84447e-03
2684.000      1.83130e-03
2687.000      1.81829e-03
2690.000      1.80544e-03
2693.000      1.79275e-03
2696.000      1.78021e-03
2699.000      1.76782e-03
2702.000      1.75559e-03
2705.000      1.74350e-03
2708.000      1.73155e-03
2711.000      1.71975e-03
2714.000      1.70809e-03
2717.000      1.69656e-03
2720.000      1.68517e-03
2723.000      1.67391e-03
2726.000      1.66277e-03
2729.000      1.65177e-03
2732.000      1.64089e-03
2735.000      1.63014e-03
2738.000      1.61951e-03
2741.000      1.60900e-03
2744.000      1.59860e-03
2747.000      1.58832e-03
2750.000      1.57816e-03
2753.000      1.56810e-03
2756.000      1.55816e-03
2759.000      1.54832e-03
2762.000      1.53860e-03
2765.000      1.52897e-03
2768.000      1.51945e-03
2771.000      1.51004e-03
2774.000      1.50072e-03
2777.000      1.49150e-03
2780.000      1.48238e-03
2783.000      1.47336e-03
2786.000      1.46442e-03
2789.000      1.45559e-03
2792.000      1.44684e-03
2795.000      1.43818e-03
2798.000      1.42962e-03
2801.000      1.42114e-03
2804.000      1.41274e-03
2807.000      1.40443e-03
2810.000      1.39621e-03
2813.000      1.38806e-03
2816.000      1.38000e-03
2819.000      1.37202e-03
2822.000      1.36412e-03
2825.000      1.35629e-03
2828.000      1.34854e-03
2831.000      1.34087e-03
2834.000      1.33327e-03
2837.000      1.32575e-03
2840.000      1.31830e-03
2843.000      1.31092e-03
2846.000      1.30361e-03
2849.000      1.29636e-03
2852.000      1.28919e-03
2855.000      1.28209e-03
2858.000      1.27505e-03
2861.000      1.26808e-03
2864.000      1.26117e-03
2867.000      1.25433e-03
2870.000      1.24755e-03
2873.000      1.24083e-03
2876.000      1.23417e-03
2879.000      1.22758e-03
2882.000      1.22104e-03
2885.000      1.21457e-03
2888.000      1.20815e-03
2891.000      1.20179e-03
2894.000      1.19548e-03
2897.000      1.18924e-03
2900.000      1.18305e-03
2903.000      1.17691e-03
2906.000      1.17082e-03
2909.000      1.16479e-03
2912.000      1.15882e-03
2915.000      1.15289e-03
2918.000      1.14702e-03
2921.000      1.14119e-03
2924.000      1.13542e-03
2927.000      1.12970e-03
2930.000      1.12402e-03
2933.000      1.11839e-03
2936.000      1.11281e-03
2939.000      1.10728e-03
2942.000      1.10180e-03
2945.000      1.09636e-03
2948.000      1.09096e-03
2951.000      1.08561e-03
2954.000      1.08031e-03
2957.000      1.07504e-03
2960.000      1.06983e-03
2963.000      1.06465e-03
2966.000      1.05952e-03
2969.000      1.05442e-03
2972.000      1.04937e-03
2975.000      1.04436e-03
2978.000      1.03939e-03
2981.000      1.03446e-03
2984.000      1.02957e-03
2987.000      1.02472e-03
2990.000      1.01991e-03
2993.000      1.01513e-03
2996.000      1.01040e-03
2999.000      1.00570e-03
3002.000      1.00103e-03
3005.000      9.96405e-04
3008.000      9.91813e-04
3011.000      9.87258e-04
3014.000      9.82737e-04
3017.000      9.78251e-04
3020.000      9.73799e-04
3023.000      9.69382e-04
3026.000      9.64998e-04
3029.000      9.60647e-04
3032.000      9.56329e-04
3035.000      9.52044e-04
3038.000      9.47790e-04
3041.000      9.43569e-04
3044.000      9.39379e-04
3047.000      9.35220e-04
3050.000      9.31092e-04
3053.000      9.26995e-04
3056.000      9.22928e-04
3059.000      9.18890e-04
3062.000      9.14882e-04
3065.000      9.10903e-04
3068.000      9.06954e-04
3071.000      9.03032e-04
3074.000      8.99140e-04
3077.000      8.95275e-04
3080.000      8.91438e-04
3083.000      8.87628e-04
3086.000      8.83845e-04
3089.000      8.80090e-04
3092.000      8.76361e-04
3095.000      8.72658e-04
3098.000      8.68981e-04
3101.000      8.65330e-04
3104.000      8.61705e-04
3107.000      8.58105e-04
3110.000      8.54530e-04
3113.000      8.50980e-04
3116.000      8.47455e-04
3119.000      8.43953e-04
3122.000      8.40476e-04
3125.000      8.37023e-04
3128.000      8.33593e-04
3131.000      8.30187e-04
3134.000      8.26803e-04
3137.000      8.23443e-04
3140.000      8.20105e-04
3143.000      8.16790e-04
3146.000      8.13497e-04
3149.000      8.10226e-04
3152.000      8.06977e-04
3155.000      8.03749e-04
3158.000      8.00543e-04
3161.000      7.97358e-04
3164.000      7.94195e-04
3167.000      7.91051e-04
3170.000      7.87929e-04
3173.000      7.84827e-04
3176.000      7.81745e-04
3179.000      7.78683e-04
3182.000      7.75642e-04
3185.000      7.72619e-04
3188.000      7.69617e-04
3191.000      7.66633e-04
3194.000      7.63669e-04
3197.000      7.60724e-04
3200.000      7.57797e-04
3203.000      7.54889e-04
3206.000      7.52000e-04
3209.000      7.49128e-04
3212.000      7.46275e-04
3215.000      7.43440e-04
3218.000      7.40623e-04
3221.000      7.37823e-04
3224.000      7.35041e-04
3227.000      7.32276e-04
3230.000      7.29528e-04
3233.000      7.26797e-04
3236.000      7.24083e-04
3239.000      7.21386e-04
3242.000      7.18705e-04
3245.000      7.16041e-04
3248.000      7.13393e-04
3251.000      7.10761e-04
3254.000      7.08146e-04
3257.000      7.05546e-04
3260.000      7.02961e-04
3263.000      7.00393e-04
3266.000      6.97839e-04
3269.000      6.95302e-04
3272.000      6.92779e-04
3275.000      6.90271e-04
3278.000      6.87778e-04
3281.000      6.85300e-04
3284.000      6.82837e-04
3287.000      6.80388e-04
3290.000      6.77954e-04
3293.000      6.75534e-04
3296.000      6.73128e-04
3299.000      6.70737e-04
3302.000      6.68359e-04
3305.000      6.65995e-04
3308.000      6.63645e-04
3311.000      6.61308e-04
3314.000      6.58985e-04
3317.000      6.56675e-04
3320.000      6.54379e-04
3323.000      6.52095e-04
3326.000      6.49825e-04
3329.000      6.47568e-04
3332.000      6.45323e-04
3335.000      6.43092e-04
3338.000      6.40873e-04
3341.000      6.38666e-04
3344.000      6.36472e-04
3347.000      6.34290e-04
3350.000      6.32121e-04
3353.000      6.29963e-04
3356.000      6.27818e-04
3359.000      6.25685e-04
3362.000      6.23563e-04
3365.000      6.21454e-04
3368.000      6.19355e-04
3371.000      6.17269e-04
3374.000      6.15194e-04
3377.000      6.13130e-04
3380.000      6.11078e-04
3383.000      6.09037e-04
3386.000      6.07007e-04
3389.000      6.04988e-04
3392.000      6.02980e-04
3395.000      6.00983e-04
3398.000      5.98997e-04
3401.000      5.97021e-04
3404.000      5.95056e-04
3407.000      5.93102e-04
3410.000      5.91158e-04
3413.000      5.89224e-04
3416.000      5.87301e-04
3419.000      5.85388e-04
3422.000      5.83485e-04
3425.000      5.81592e-04
3428.000      5.79710e-04
3431.000      5.77837e-04
3434.000      5.75974e-04
3437.000      5.74121e-04
3440.000      5.72277e-04
3443.000      5.70443e-04
3446.000      5.68619e-04
3449.000      5.66804e-04
3452.000      5.64999e-04
3455.000      5.63202e-04
3458.000      5.61416e-04
3461.000      5.59638e-04
3464.000      5.57870e-04
3467.000      5.56110e-04
3470.000      5.54360e-04
3473.000      5.52619e-04
3476.000      5.50886e-04
3479.000      5.49162e-04
3482.000      5.47448e-04
3485.000      5.45741e-04
3488.000      5.44044e-04
3491.000      5.42355e-04
3494.000      5.40674e-04
3497.000      5.39002e-04
3500.000      5.37338e-04
3503.000      5.35683e-04
3506.000      5.34036e-04
3509.000      5.32397e-04
3512.000      5.30766e-04
3515.000      5.29144e-04
3518.000      5.27529e-04
3521.000      5.25923e-04
3524.000      5.24324e-04
3527.000      5.22733e-04
3530.000      5.21150e-04
3533.000      5.19575e-04
3536.000      5.18007e-04
3539.000      5.16447e-04
3542.000      5.14895e-04
3545.000      5.13350e-04
3548.000      5.11813e-04
3551.000      5.10283e-04
3554.000      5.08761e-04
3557.000      5.07246e-04
3560.000      5.05738e-04
3563.000      5.04238e-04
3566.000      5.02745e-04
3569.000      5.01258e-04
3572.000      4.99779e-04
3575.000      4.98307e-04
3578.000      4.96842e-04
3581.000      4.95384e-04
3584.000      4.93933e-04
3587.000      4.92489e-04
3590.000      4.91051e-04
3593.000      4.89621e-04
3596.000      4.88197e-04
3599.000      4.86779e-04
3602.000      4.85369e-04
3605.000      4.83965e-04
3608.000      4.82567e-04
3611.000      4.81176e-04
3614.000      4.79792e-04
3617.000      4.78414e-04
3620.000      4.77042e-04
3623.000      4.75676e-04
3626.000      4.74317e-04
3629.000      4.72965e-04
3632.000      4.71618e-04
3635.000      4.70277e-04
3638.000      4.68943e-04
3641.000      4.67615e-04
3644.000      4.66293e-04
3647.000      4.64977e-04
3650.000      4.63667e-04
3653.000      4.62362e-04
3656.000      4.61064e-04
3659.000      4.59772e-04
3662.000      4.58485e-04
3665.000      4.57204e-04
3668.000      4.55929e-04
3671.000      4.54660e-04
3674.000      4.53396e-04
3677.000      4.52138e-04
3680.000      4.50886e-04
3683.000      4.49639e-04
3686.000      4.48397e-04
3689.000      4.47162e-04
3692.000      4.45931e-04
3695.000      4.44706e-04
3698.000      4.43487e-04
3701.000      4.42273e-04
3704.000      4.41064e-04
3707.000      4.39860e-04
3710.000      4.38662e-04
3713.000      4.37469e-04
3716.000      4.36281e-04
3719.000      4.35099e-04
3722.000      4.33921e-04
3725.000      4.32749e-04
3728.000      4.31582e-04
3731.000      4.30420e-04
3734.000      4.29262e-04
3737.000      4.28110e-04
3740.000      4.26963e-04
3743.000      4.25821e-04
3746.000      4.24683e-04
3749.000      4.23551e-04
3752.000      4.22423e-04
3755.000      4.21300e-04
3758.000      4.20182e-04
3761.000      4.19068e-04
3764.000      4.17960e-04
3767.000      4.16856e-04
3770.000      4.15756e-04
3773.000      4.14662e-04
3776.000      4.13572e-04
3779.000      4.12486e-04
3782.000      4.11405e-04
3785.000      4.10329e-04
3788.000      4.09257e-04
3791.000      4.08190e-04
3794.000      4.07127e-04
3797.000      4.06068e-04
3800.000      4.05014e-04
3803.000      4.03964e-04
3806.000      4.02919e-04
3809.000      4.01878e-04
3812.000      4.00841e-04
3815.000      3.99809e-04
3818.000      3.98780e-04
3821.000      3.97756e-04
3824.000      3.96737e-04
3827.000      3.95721e-04
3830.000      3.94709e-04
3833.000      3.93702e-04
3836.000      3.92699e-04
3839.000      3.91700e-04
3842.000      3.90705e-04
3845.000      3.89713e-04
3848.000      3.88726e-04
3851.000      3.87743e-04
3854.000      3.86764e-04
3857.000      3.85789e-04
3860.000      3.84818e-04
3863.000      3.83850e-04
3866.000      3.82887e-04
3869.000      3.81927e-04
3872.000      3.80971e-04
3875.000      3.80019e-04
3878.000      3.79071e-04
3881.000      3.78127e-04
3884.000      3.77186e-04
3887.000      3.76249e-04
3890.000      3.75316e-04
3893.000      3.74386e-04
3896.000      3.73460e-04
3899.000      3.72538e-04
3902.000      3.71620e-04
3905.000      3.70705e-04
3908.000      3.69793e-04
3911.000      3.68885e-04
3914.000      3.67981e-04
3917.000      3.67080e-04
3920.000      3.66183e-04
3923.000      3.65289e-04
3926.000      3.64399e-04
3929.000      3.63512e-04
3932.000      3.62628e-04
3935.000      3.61748e-04
3938.000      3.60872e-04
3941.000      3.59999e-04
3944.000      3.59129e-04
3947.000      3.58262e-04
3950.000      3.57399e-04
3953.000      3.56539e-04
3956.000      3.55682e-04
3959.000      3.54829e-04
3962.000      3.53979e-04
3965.000      3.53132e-04
3968.000      3.52288e-04
3971.000      3.51448e-04
3974.000      3.50611e-04
3977.000      3.49776e-04
3980.000      3.48945e-04
3983.000      3.48118e-04
3986.000      3.47293e-04
3989.000      3.46471e-04
3992.000      3.45653e-04
3995.000      3.44837e-04
3998.000      3.44025e-04
4001.000      3.43216e-04
4004.000      3.42409e-04
4007.000      3.41606e-04
4010.000      3.40806e-04
4013.000      3.40008e-04
4016.000      3.39214e-04
4019.000      3.38422e-04
4022.000      3.37634e-04
4025.000      3.36848e-04
4028.000      3.36065e-04
4031.000      3.35286e-04
4034.000      3.34509e-04
4037.000      3.33734e-04
4040.000      3.32963e-04
4043.000      3.32195e-04
4046.000      3.31429e-04
4049.000      3.30666e-04
4052.000      3.29906e-04
4055.000      3.29149e-04
4058.000      3.28394e-04
4061.000      3.27642e-04
4064.000      3.26893e-04
4067.000      3.26147e-04
4070.000      3.25403e-04
4073.000      3.24662e-04
4076.000      3.23924e-04
4079.000      3.23188e-04
4082.000      3.22455e-04
4085.000      3.21724e-04
4088.000      3.20997e-04
4091.000      3.20271e-04
4094.000      3.19549e-04
4097.000      3.18829e-04
4100.000      3.18111e-04
4103.000      3.17396e-04
4106.000      3.16684e-04
4109.000      3.15974e-04
4112.000      3.15267e-04
4115.000      3.14562e-04
4118.000      3.13860e-04
4121.000      3.13160e-04
4124.000      3.12463e-04
4127.000      3.11768e-04
4130.000      3.11075e-04
4133.000      3.10385e-04
4136.000      3.09697e-04
4139.000      3.09012e-04
4142.000      3.08329e-04
4145.000      3.07649e-04
4148.000      3.06971e-04
4151.000      3.06295e-04
4154.000      3.05622e-04
4157.000      3.04950e-04
4160.000      3.04282e-04
4163.000      3.03615e-04
4166.000      3.02951e-04
4169.000      3.02289e-04
4172.000      3.01630e-04
4175.000      3.00973e-04
4178.000      3.00318e-04
4181.000      2.99665e-04
4184.000      2.99014e-04
4187.000      2.98366e-04
4190.000      2.97720e-04
4193.000      2.97076e-04
4196.000      2.96434e-04
4199.000      2.95795e-04
4202.000      2.95157e-04
4205.000      2.94522e-04
4208.000      2.93889e-04
4211.000      2.93258e-04
4214.000      2.92630e-04
4217.000      2.92003e-04
4220.000      2.91379e-04
4223.000      2.90756e-04
4226.000      2.90136e-04
4229.000      2.89518e-04
4232.000      2.88902e-04
4235.000      2.88288e-04
4238.000      2.87676e-04
4241.000      2.87066e-04
4244.000      2.86458e-04
4247.000      2.85852e-04
4250.000      2.85248e-04
4253.000      2.84646e-04
4256.000      2.84046e-04
4259.000      2.83448e-04
4262.000      2.82852e-04
4265.000      2.82258e-04
4268.000      2.81666e-04
4271.000      2.81076e-04
4274.000      2.80488e-04
4277.000      2.79902e-04
4280.000      2.79318e-04
4283.000      2.78735e-04
4286.000      2.78155e-04
4289.000      2.77577e-04
4292.000      2.77000e-04
4295.000      2.76425e-04
4298.000      2.75852e-04
4301.000      2.75281e-04
4304.000      2.74712e-04
4307.000      2.74145e-04
4310.000      2.73580e-04
4313.000      2.73016e-04
4316.000      2.72454e-04
4319.000      2.71894e-04
4322.000      2.71336e-04
4325.000      2.70780e-04
4328.000      2.70225e-04
4331.000      2.69672e-04
4334.000      2.69121e-04
4337.000      2.68572e-04
4340.000      2.68025e-04
4343.000      2.67479e-04
4346.000      2.66935e-04
4349.000      2.66393e-04
4352.000      2.65852e-04
4355.000      2.65313e-04
4358.000      2.64776e-04
4361.000      2.64241e-04
4364.000      2.63707e-04
4367.000      2.63175e-04
4370.000      2.62645e-04
4373.000      2.62116e-04
4376.000      2.61589e-04
4379.000      2.61064e-04
4382.000      2.60540e-04
4385.000      2.60018e-04
4388.000      2.59498e-04
4391.000      2.58979e-04
4394.000      2.58462e-04
4397.000      2.57947e-04
4400.000      2.57433e-04
4403.000      2.56921e-04
4406.000      2.56410e-04
4409.000      2.55901e-04
4412.000      2.55393e-04
4415.000      2.54887e-04
4418.000      2.54383e-04
4421.000      2.53880e-04
4424.000      2.53379e-04
4427.000      2.52879e-04
4430.000      2.52381e-04
4433.000      2.51885e-04
4436.000      2.51390e-04
4439.000      2.50896e-04
4442.000      2.50404e-04
4445.000      2.49914e-04
4448.000      2.49425e-04
4451.000      2.48937e-04
4454.000      2.48451e-04
4457.000      2.47967e-04
4460.000      2.47483e-04
4463.000      2.47002e-04
4466.000      2.46522e-04
4469.000      2.46043e-04
4472.000      2.45566e-04
4475.000      2.45090e-04
4478.000      2.44616e-04
4481.000      2.44143e-04
4484.000      2.43672e-04
4487.000      2.43202e-04
4490.000      2.42733e-04
4493.000      2.42266e-04
4496.000      2.41800e-04
4499.000      2.41336e-04
4502.000      2.40873e-04
4505.000      2.40411e-04
4508.000      2.39951e-04
4511.000      2.39492e-04
4514.000      2.39035e-04
4517.000      2.38578e-04
4520.000      2.38124e-04
4523.000      2.37670e-04
4526.000      2.37218e-04
4529.000      2.36768e-04
4532.000      2.36318e-04
4535.000      2.35870e-04
4538.000      2.35424e-04
4541.000      2.34978e-04
4544.000      2.34534e-04
4547.000      2.34091e-04
4550.000      2.33650e-04
4553.000      2.33210e-04
4556.000      2.32771e-04
4559.000      2.32333e-04
4562.000      2.31897e-04
4565.000      2.31462e-04
4568.000      2.31028e-04
4571.000      2.30596e-04
4574.000      2.30165e-04
4577.000      2.29735e-04
4580.000      2.29306e-04
4583.000      2.28879e-04
4586.000      2.28453e-04
4589.000      2.28028e-04
4592.000      2.27604e-04
4595.000      2.27181e-04
4598.000      2.26760e-04
4601.000      2.26340e-04
4604.000      2.25921e-04
4607.000      2.25504e-04
4610.000      2.25087e-04
4613.000      2.24672e-04
4616.000      2.24258e-04
4619.000      2.23845e-04
4622.000      2.23434e-04
4625.000      2.23023e-04
4628.000      2.22614e-04
4631.000      2.22206e-04
4634.000      2.21799e-04
4637.000      2.21393e-04
4640.000      2.20988e-04
4643.000      2.20585e-04
4646.000      2.20183e-04
4649.000      2.19782e-04
4652.000      2.19381e-04
4655.000      2.18983e-04
4658.000      2.18585e-04
4661.000      2.18188e-04
4664.000      2.17793e-04
4667.000      2.17398e-04
4670.000      2.17005e-04
4673.000      2.16613e-04
4676.000      2.16222e-04
4679.000      2.15832e-04
4682.000      2.15443e-04
4685.000      2.15055e-04
4688.000      2.14668e-04
4691.000      2.14283e-04
4694.000      2.13898e-04
4697.000      2.13515e-04
4700.000      2.13132e-04
4703.000      2.12751e-04
4706.000      2.12371e-04
4709.000      2.11991e-04
4712.000      2.11613e-04
4715.000      2.11236e-04
4718.000      2.10860e-04
4721.000      2.10485e-04
4724.000      2.10111e-04
4727.000      2.09738e-04
4730.000      2.09366e-04
4733.000      2.08995e-04
4736.000      2.08625e-04
4739.000      2.08257e-04
4742.000      2.07889e-04
4745.000      2.07522e-04
4748.000      2.07156e-04
4751.000      2.06791e-04
4754.000      2.06427e-04
4757.000      2.06065e-04
4760.000      2.05703e-04
4763.000      2.05342e-04
4766.000      2.04982e-04
4769.000      2.04623e-04
4772.000      2.04265e-04
4775.000      2.03908e-04
4778.000      2.03552e-04
4781.000      2.03197e-04
4784.000      2.02843e-04
4787.000      2.02490e-04
4790.000      2.02138e-04
4793.000      2.01787e-04
4796.000      2.01437e-04
4799.000      2.01088e-04
4802.000      2.00739e-04
4805.000      2.00392e-04
4808.000      2.00045e-04
4811.000      1.99700e-04
4814.000      1.99355e-04
4817.000      1.99012e-04
4820.000      1.98669e-04
4823.000      1.98327e-04
4826.000      1.97986e-04
4829.000      1.97646e-04
4832.000      1.97307e-04
4835.000      1.96969e-04
4838.000      1.96631e-04
4841.000      1.96295e-04
4844.000      1.95959e-04
4847.000      1.95625e-04
4850.000      1.95291e-04
4853.000      1.94958e-04
4856.000      1.94626e-04
4859.000      1.94295e-04
4862.000      1.93965e-04
4865.000      1.93636e-04
4868.000      1.93307e-04
4871.000      1.92980e-04
4874.000      1.92653e-04
4877.000      1.92327e-04
4880.000      1.92002e-04
4883.000      1.91678e-04
4886.000      1.91354e-04
4889.000      1.91032e-04
4892.000      1.90710e-04
4895.000      1.90389e-04
4898.000      1.90069e-04
4901.000      1.89750e-04
4904.000      1.89432e-04
4907.000      1.89114e-04
4910.000      1.88798e-04
4913.000      1.88482e-04
4916.000      1.88167e-04
4919.000      1.87853e-04
4922.000      1.87539e-04
4925.000      1.87227e-04
4928.000      1.86915e-04
4931.000      1.86604e-04
4934.000      1.86294e-04
4937.000      1.85985e-04
4940.000      1.85676e-04
4943.000      1.85368e-04
4946.000      1.85061e-04
4949.000      1.84755e-04
4952.000      1.84450e-04
4955.000      1.84145e-04
4958.000      1.83841e-04
4961.000      1.83538e-04
4964.000      1.83236e-04
4967.000      1.82934e-04
4970.000      1.82634e-04
4973.000      1.82334e-04
4976.000      1.82035e-04
4979.000      1.81736e-04
4982.000      1.81438e-04
4985.000      1.81141e-04
4988.000      1.80845e-04
4991.000      1.80550e-04
4994.000      1.80255e-04
4997.000      1.79961e-04
5000.000      1.79668e-04
